Data from RUBY_D_USB4F064561__0__10-26-39-247.txt Node

Date: Wed Jun 02 10:26:39 EDT 2021
User: storrer.a
Spectrometer: USB4F06456
Trigger mode: 4
Integration Time (sec): 3.250000E-1
Scans to average: 1
Electric dark correction enabled: true
Nonlinearity correction enabled: false
Boxcar width: 0
XAxis mode: Wavelengths
Number of Pixels in Spectrum: 3648
>>>>>Begin Spectral Data<<<<<
345.532	-481.1
345.749	-481.1
345.966	-481.1
346.184	-517.97
346.401	-503.63
346.618	80.04
346.836	16.55
347.053	34.99
347.27	-157.52
347.487	-55.12
347.705	166.06
347.922	-157.52
348.139	51.37
348.356	-48.98
348.574	47.27
348.791	24.75
349.008	-1.88
349.225	-63.32
349.442	-120.66
349.659	-48.98
349.877	-10.07
350.094	-65.36
350.311	110.76
350.528	45.23
350.745	53.42
350.962	-73.56
351.179	0.17
351.396	20.65
351.613	34.99
351.83	-81.75
352.047	-122.71
352.264	14.51
352.481	43.18
352.698	-157.52
352.915	-202.58
353.132	-155.47
353.349	-46.93
353.566	-16.21
353.783	-51.03
354	123.05
354.217	-159.57
354.433	329.89
354.65	30.89
354.867	-104.28
355.084	-77.65
355.301	88.23
355.518	32.94
355.735	51.37
355.951	-100.18
356.168	43.18
356.385	-96.08
356.602	-67.41
356.818	-40.79
357.035	18.6
357.252	61.61
357.469	-253.78
357.685	-124.76
357.902	-212.82
358.119	-79.7
358.335	-149.33
358.552	-44.88
358.769	59.56
358.985	51.37
359.202	-161.62
359.419	178.34
359.635	-46.93
359.852	-124.76
360.068	-130.9
360.285	-36.69
360.501	112.81
360.718	51.37
360.934	84.14
361.151	-106.32
361.367	-53.08
361.584	-10.07
361.8	-79.7
362.017	-167.76
362.233	-61.27
362.45	112.81
362.666	-173.91
362.883	118.95
363.099	-38.74
363.315	-59.22
363.532	-42.84
363.748	-110.42
363.965	-253.78
364.181	-51.03
364.397	-108.37
364.614	-12.12
364.83	-32.6
365.046	182.44
365.262	-118.61
365.479	20.65
365.695	204.97
365.911	237.74
366.128	-292.69
366.344	-36.69
366.56	-155.47
366.776	-96.08
366.992	-73.56
367.209	116.9
367.425	-110.42
367.641	-81.75
367.857	-53.08
368.073	194.73
368.289	-53.08
368.505	-12.12
368.722	-8.02
368.938	2.22
369.154	-85.84
369.37	110.76
369.586	-73.56
369.802	-46.93
370.018	34.99
370.234	-79.7
370.45	-73.56
370.666	258.21
370.882	-237.39
371.098	-5.97
371.314	-87.89
371.53	-128.85
371.746	-247.63
371.962	-104.28
372.178	-5.97
372.393	-151.38
372.609	-83.8
372.825	-53.08
373.041	-63.32
373.257	-257.87
373.473	-122.71
373.689	118.95
373.904	-296.78
374.12	12.46
374.336	139.43
374.552	47.27
374.767	-38.74
374.983	-94.04
375.199	80.04
375.415	-65.36
375.63	-67.41
375.846	-302.93
376.062	86.19
376.278	-110.42
376.493	-46.93
376.709	-40.79
376.925	-100.18
377.14	-3.93
377.356	-67.41
377.571	-96.08
377.787	235.69
378.003	47.27
378.218	-124.76
378.434	-12.12
378.649	227.5
378.865	-157.52
379.08	-44.88
379.296	43.18
379.511	14.51
379.727	77.99
379.942	-46.93
380.158	57.51
380.373	-20.31
380.589	-14.17
380.804	0.17
381.02	-34.64
381.235	96.43
381.45	-34.64
381.666	-5.97
381.881	-32.6
382.096	-141.14
382.312	-20.31
382.527	-182.1
382.742	6.31
382.958	-108.37
383.173	133.29
383.388	530.59
383.604	-104.28
383.819	-28.5
384.034	-165.71
384.249	-65.36
384.465	-91.99
384.68	-114.52
384.895	-89.94
385.11	-100.18
385.325	-14.17
385.541	63.66
385.756	-116.56
385.971	55.47
386.186	-61.27
386.401	-67.41
386.616	-36.69
386.831	-114.52
387.046	10.41
387.261	-118.61
387.477	102.57
387.692	12.46
387.907	-30.55
388.122	-24.4
388.337	47.27
388.552	16.55
388.767	-153.43
388.982	-75.6
389.197	96.43
389.411	28.84
389.626	8.36
389.841	-149.33
390.056	-182.1
390.271	-77.65
390.486	-10.07
390.701	-188.24
390.916	-155.47
391.131	22.7
391.345	-96.08
391.56	-161.62
391.775	-14.17
391.99	-55.12
392.205	-151.38
392.42	-14.17
392.634	135.34
392.849	106.67
393.064	-3.93
393.279	8.36
393.493	-94.04
393.708	-157.52
393.923	-67.41
394.137	-8.02
394.352	18.6
394.567	-28.5
394.781	-46.93
394.996	20.65
395.211	106.67
395.425	-114.52
395.64	-130.9
395.854	157.86
396.069	-28.5
396.284	-91.99
396.498	-147.28
396.713	-81.75
396.927	-55.12
397.142	-135
397.356	-53.08
397.571	-83.8
397.785	75.95
398	229.54
398.214	-94.04
398.428	53.42
398.643	12.46
398.857	10.41
399.072	61.61
399.286	-46.93
399.5	30.89
399.715	104.62
399.929	16.55
400.144	-1.88
400.358	-106.32
400.572	-18.26
400.787	-153.43
401.001	-106.32
401.215	-28.5
401.429	49.32
401.644	-48.98
401.858	47.27
402.072	-8.02
402.286	80.04
402.501	118.95
402.715	55.47
402.929	-104.28
403.143	-51.03
403.357	-130.9
403.571	-147.28
403.786	-171.86
404	24.75
404.214	-63.32
404.428	24.75
404.642	67.75
404.856	178.34
405.07	-112.47
405.284	272.55
405.498	98.47
405.712	92.33
405.926	-1.88
406.14	41.13
406.354	-14.17
406.568	-69.46
406.782	-94.04
406.996	-126.8
407.21	-10.07
407.424	65.71
407.638	-212.82
407.852	16.55
408.066	-44.88
408.28	32.94
408.493	65.71
408.707	-198.48
408.921	-85.84
409.135	178.34
409.349	-57.17
409.563	194.73
409.776	-42.84
409.99	-118.61
410.204	53.42
410.418	94.38
410.631	-3.93
410.845	-3.93
411.059	-102.23
411.273	18.6
411.486	-100.18
411.7	-26.45
411.914	-112.47
412.127	41.13
412.341	82.09
412.555	-128.85
412.768	20.65
412.982	-106.32
413.195	-57.17
413.409	-120.66
413.623	-75.6
413.836	-79.7
414.05	-98.13
414.263	-149.33
414.477	-239.44
414.69	10.41
414.904	59.56
415.117	0.17
415.331	2.22
415.544	-87.89
415.758	-42.84
415.971	57.51
416.185	-143.19
416.398	-110.42
416.611	-132.95
416.825	-67.41
417.038	121
417.251	71.85
417.465	-12.12
417.678	-182.1
417.891	-14.17
418.105	-89.94
418.318	-120.66
418.531	106.67
418.745	-110.42
418.958	-239.44
419.171	41.13
419.384	67.75
419.598	-100.18
419.811	2.22
420.024	6.31
420.237	-55.12
420.45	-94.04
420.664	-12.12
420.877	4.27
421.09	12.46
421.303	-12.12
421.516	342.18
421.729	-81.75
421.942	-98.13
422.155	32.94
422.368	-26.45
422.582	-48.98
422.795	-110.42
423.008	51.37
423.221	-1.88
423.434	-5.97
423.647	-96.08
423.86	-112.47
424.073	-42.84
424.286	-30.55
424.498	104.62
424.711	-30.55
424.924	-71.51
425.137	-46.93
425.35	-22.36
425.563	-3.93
425.776	106.67
425.989	80.04
426.202	-186.19
426.414	110.76
426.627	55.47
426.84	12.46
427.053	-38.74
427.266	88.23
427.478	-108.37
427.691	14.51
427.904	-12.12
428.117	-106.32
428.329	45.23
428.542	-118.61
428.755	-32.6
428.967	-165.71
429.18	-100.18
429.393	18.6
429.605	61.61
429.818	745.63
430.031	-96.08
430.243	-51.03
430.456	-89.94
430.668	-218.96
430.881	-128.85
431.094	-83.8
431.306	-67.41
431.519	-98.13
431.731	-53.08
431.944	-32.6
432.156	-153.43
432.369	-155.47
432.581	153.77
432.794	39.08
433.006	-186.19
433.218	252.07
433.431	-14.17
433.643	102.57
433.856	94.38
434.068	-167.76
434.28	-63.32
434.493	147.62
434.705	-124.76
434.918	-147.28
435.13	-212.82
435.342	75.95
435.554	80.04
435.767	10.41
435.979	14.51
436.191	-5.97
436.404	63.66
436.616	-81.75
436.828	86.19
437.04	114.86
437.252	-114.52
437.465	-227.15
437.677	-87.89
437.889	-192.34
438.101	-55.12
438.313	-5.97
438.525	-42.84
438.737	10.41
438.949	-57.17
439.162	-46.93
439.374	-122.71
439.586	153.77
439.798	-145.24
440.01	65.71
440.222	155.82
440.434	-18.26
440.646	47.27
440.858	-178
441.07	-130.9
441.282	-175.95
441.494	-48.98
441.706	-53.08
441.918	-10.07
442.129	-14.17
442.341	108.71
442.553	-106.32
442.765	-104.28
442.977	-57.17
443.189	14.51
443.401	100.52
443.612	-214.87
443.824	-161.62
444.036	-157.52
444.248	-120.66
444.46	-120.66
444.671	-112.47
444.883	92.33
445.095	-65.36
445.307	-51.03
445.518	26.79
445.73	-108.37
445.942	-30.55
446.153	-18.26
446.365	-214.87
446.577	-151.38
446.788	174.25
447	-67.41
447.212	-3.93
447.423	-12.12
447.635	-22.36
447.846	-69.46
448.058	-194.39
448.269	30.89
448.481	4.27
448.692	41.13
448.904	-12.12
449.115	61.61
449.327	-167.76
449.538	-51.03
449.75	-83.8
449.961	88.23
450.173	22.7
450.384	-79.7
450.596	-34.64
450.807	63.66
451.018	75.95
451.23	-61.27
451.441	12.46
451.652	24.75
451.864	26.79
452.075	-8.02
452.286	-112.47
452.498	-20.31
452.709	-55.12
452.92	-42.84
453.131	-83.8
453.343	0.17
453.554	14.51
453.765	-149.33
453.976	0.17
454.187	-116.56
454.399	-145.24
454.61	-112.47
454.821	-24.4
455.032	49.32
455.243	61.61
455.454	-32.6
455.665	-124.76
455.877	-67.41
456.088	57.51
456.299	-153.43
456.51	-100.18
456.721	-44.88
456.932	141.48
457.143	-69.46
457.354	-122.71
457.565	-69.46
457.776	-26.45
457.987	-32.6
458.198	-94.04
458.409	-3.93
458.62	-196.43
458.83	-91.99
459.041	-143.19
459.252	-135
459.463	-173.91
459.674	-61.27
459.885	55.47
460.096	-55.12
460.306	-122.71
460.517	41.13
460.728	-28.5
460.939	-89.94
461.15	-55.12
461.36	-55.12
461.571	-85.84
461.782	-44.88
461.993	0.17
462.203	-38.74
462.414	-178
462.625	-8.02
462.835	-81.75
463.046	-1.88
463.257	-22.36
463.467	-3.93
463.678	-69.46
463.889	-14.17
464.099	4.27
464.31	88.23
464.52	-5.97
464.731	-313.17
464.941	-108.37
465.152	-120.66
465.362	98.47
465.573	-137.04
465.783	67.75
465.994	77.99
466.204	121
466.415	-178
466.625	24.75
466.836	174.25
467.046	8.36
467.257	26.79
467.467	-141.14
467.677	59.56
467.888	192.68
468.098	26.79
468.308	-14.17
468.519	41.13
468.729	47.27
468.939	-81.75
469.15	-110.42
469.36	225.45
469.57	-96.08
469.78	-155.47
469.991	45.23
470.201	116.9
470.411	-67.41
470.621	-18.26
470.831	-102.23
471.042	129.19
471.252	18.6
471.462	39.08
471.672	63.66
471.882	153.77
472.092	247.97
472.302	377
472.512	-223.06
472.723	12.46
472.933	-38.74
473.143	4.27
473.353	-157.52
473.563	96.43
473.773	-32.6
473.983	-57.17
474.193	-53.08
474.403	-79.7
474.613	108.71
474.822	-22.36
475.032	-44.88
475.242	121
475.452	-173.91
475.662	-135
475.872	-28.5
476.082	227.5
476.292	24.75
476.502	22.7
476.711	-65.36
476.921	4.27
477.131	-83.8
477.341	-126.8
477.551	24.75
477.76	-38.74
477.97	-126.8
478.18	-104.28
478.39	-55.12
478.599	161.96
478.809	-69.46
479.019	-61.27
479.228	43.18
479.438	-79.7
479.648	-1.88
479.857	-120.66
480.067	-94.04
480.276	86.19
480.486	-5.97
480.696	-48.98
480.905	24.75
481.115	-83.8
481.324	84.14
481.534	55.47
481.743	-89.94
481.953	98.47
482.162	57.51
482.372	49.32
482.581	-159.57
482.791	424.1
483	188.58
483.21	-132.95
483.419	14.51
483.628	-1.88
483.838	-180.05
484.047	-63.32
484.257	-8.02
484.466	80.04
484.675	-40.79
484.885	-1.88
485.094	-98.13
485.303	59.56
485.512	28.84
485.722	-124.76
485.931	-75.6
486.14	211.11
486.349	-194.39
486.559	51.37
486.768	32.94
486.977	-51.03
487.186	231.59
487.395	-22.36
487.605	-38.74
487.814	184.49
488.023	108.71
488.232	129.19
488.441	37.03
488.65	331.94
488.859	293.03
489.068	-59.22
489.277	96.43
489.486	-63.32
489.695	-102.23
489.904	-34.64
490.113	137.38
490.322	-12.12
490.531	41.13
490.74	-118.61
490.949	-36.69
491.158	30.89
491.367	192.68
491.576	22.7
491.785	-3.93
491.994	190.63
492.203	-153.43
492.412	73.9
492.62	135.34
492.829	-14.17
493.038	-87.89
493.247	-85.84
493.456	-120.66
493.664	6.31
493.873	-65.36
494.082	-83.8
494.291	47.27
494.499	-12.12
494.708	200.87
494.917	-116.56
495.126	-59.22
495.334	-44.88
495.543	106.67
495.751	-106.32
495.96	84.14
496.169	100.52
496.377	217.26
496.586	-67.41
496.795	-96.08
497.003	-55.12
497.212	-22.36
497.42	51.37
497.629	-26.45
497.837	243.88
498.046	-104.28
498.254	-46.93
498.463	-128.85
498.671	-1.88
498.88	123.05
499.088	30.89
499.297	-151.38
499.505	71.85
499.713	125.1
499.922	-157.52
500.13	-79.7
500.338	137.38
500.547	82.09
500.755	-32.6
500.963	67.75
501.172	-28.5
501.38	8.36
501.588	-51.03
501.797	22.7
502.005	-106.32
502.213	43.18
502.421	6.31
502.63	34.99
502.838	-91.99
503.046	88.23
503.254	-61.27
503.462	-120.66
503.67	-71.51
503.879	-8.02
504.087	-53.08
504.295	55.47
504.503	18.6
504.711	-124.76
504.919	-124.76
505.127	-22.36
505.335	53.42
505.543	-24.4
505.751	34.99
505.959	59.56
506.167	219.3
506.375	141.48
506.583	114.86
506.791	-3.93
506.999	190.63
507.207	71.85
507.415	88.23
507.623	-12.12
507.831	106.67
508.039	-32.6
508.246	96.43
508.454	63.66
508.662	362.66
508.87	37.03
509.078	39.08
509.286	268.45
509.493	82.09
509.701	110.76
509.909	28.84
510.117	-20.31
510.324	118.95
510.532	53.42
510.74	41.13
510.947	28.84
511.155	51.37
511.363	137.38
511.57	55.47
511.778	16.55
511.986	94.38
512.193	47.27
512.401	164.01
512.609	-1.88
512.816	172.2
513.024	176.3
513.231	-22.36
513.439	-53.08
513.646	235.69
513.854	141.48
514.061	98.47
514.269	75.95
514.476	161.96
514.684	219.3
514.891	215.21
515.099	178.34
515.306	317.61
515.513	-16.21
515.721	55.47
515.928	153.77
516.135	43.18
516.343	217.26
516.55	116.9
516.757	-73.56
516.965	-3.93
517.172	77.99
517.379	-14.17
517.587	121
517.794	161.96
518.001	-94.04
518.208	88.23
518.416	209.06
518.623	-30.55
518.83	-147.28
519.037	-5.97
519.244	137.38
519.451	139.43
519.659	137.38
519.866	129.19
520.073	-1.88
520.28	260.26
520.487	84.14
520.694	155.82
520.901	110.76
521.108	98.47
521.315	92.33
521.522	112.81
521.729	145.58
521.936	98.47
522.143	84.14
522.35	57.51
522.557	356.52
522.764	254.12
522.971	96.43
523.178	487.59
523.385	77.99
523.592	170.15
523.799	112.81
524.005	168.1
524.212	321.7
524.419	260.26
524.626	225.45
524.833	311.46
525.04	444.58
525.246	721.06
525.453	891.04
525.66	1468.56
525.867	2484.36
526.073	5179.48
526.28	8648.74
526.487	11716.6
526.693	14122.96
526.9	15857.59
527.107	17852.31
527.313	18331.54
527.52	19486.59
527.727	19892.09
527.933	20420.47
528.14	21509.99
528.346	22898.51
528.553	21819.23
528.759	23684.93
528.966	24049.47
529.173	24651.57
529.379	23930.69
529.586	23852.86
529.792	25091.88
529.999	25323.3
530.205	26179.36
530.411	26345.24
530.618	25741.09
530.824	25743.14
531.031	25728.8
531.237	25810.72
531.443	26920.72
531.65	26949.39
531.856	26961.68
532.062	27055.89
532.269	27666.18
532.475	27905.79
532.681	28006.14
532.888	27502.34
533.094	27445
533.3	27580.17
533.506	27309.83
533.713	27428.62
533.919	27160.33
534.125	26435.35
534.331	26343.19
534.538	24629.04
534.744	22308.69
534.95	17448.86
535.156	12488.68
535.362	9717.78
535.568	7141.44
535.774	5095.52
535.98	3549.3
536.186	2267.27
536.393	1177.75
536.599	716.96
536.805	538.79
537.011	309.41
537.217	133.29
537.423	286.89
537.629	252.07
537.835	329.89
538.04	329.89
538.246	26.79
538.452	204.97
538.658	168.1
538.864	131.24
539.07	293.03
539.276	180.39
539.482	247.97
539.688	243.88
539.893	116.9
540.099	284.84
540.305	352.42
540.511	362.66
540.717	127.14
540.922	288.93
541.128	121
541.334	411.81
541.54	262.31
541.745	354.47
541.951	372.9
542.157	264.36
542.362	370.85
542.568	176.3
542.774	262.31
542.979	331.94
543.185	190.63
543.39	317.61
543.596	231.59
543.802	141.48
544.007	100.52
544.213	174.25
544.418	331.94
544.624	311.46
544.829	288.93
545.035	403.62
545.24	141.48
545.446	276.65
545.651	67.75
545.857	227.5
546.062	211.11
546.267	106.67
546.473	-42.84
546.678	192.68
546.884	82.09
547.089	71.85
547.294	211.11
547.5	227.5
547.705	67.75
547.91	45.23
548.116	141.48
548.321	141.48
548.526	41.13
548.731	24.75
548.937	145.58
549.142	118.95
549.347	55.47
549.552	-8.02
549.757	63.66
549.963	-8.02
550.168	153.77
550.373	196.78
550.578	67.75
550.783	231.59
550.988	260.26
551.193	125.1
551.398	116.9
551.603	-24.4
551.808	20.65
552.013	143.53
552.218	-130.9
552.424	65.71
552.628	84.14
552.833	145.58
553.038	-94.04
553.243	-114.52
553.448	90.28
553.653	20.65
553.858	2.22
554.063	-8.02
554.268	192.68
554.473	-38.74
554.678	-48.98
554.883	22.7
555.087	49.32
555.292	30.89
555.497	-100.18
555.702	96.43
555.907	133.29
556.111	24.75
556.316	16.55
556.521	-81.75
556.725	-14.17
556.93	34.99
557.135	10.41
557.34	-18.26
557.544	82.09
557.749	-1.88
557.954	135.34
558.158	63.66
558.363	129.19
558.567	96.43
558.772	-26.45
558.977	-106.32
559.181	-196.43
559.386	-186.19
559.59	-32.6
559.795	-87.89
559.999	-71.51
560.204	88.23
560.408	-102.23
560.613	-53.08
560.817	-67.41
561.021	-182.1
561.226	43.18
561.43	-53.08
561.635	-132.95
561.839	-10.07
562.043	37.03
562.248	84.14
562.452	100.52
562.656	-153.43
562.861	-57.17
563.065	-81.75
563.269	110.76
563.474	-96.08
563.678	989.34
563.882	34.99
564.086	-145.24
564.291	-122.71
564.495	80.04
564.699	57.51
564.903	-1.88
565.107	-65.36
565.311	-94.04
565.516	223.4
565.72	172.2
565.924	137.38
566.128	168.1
566.332	-71.51
566.536	75.95
566.74	-16.21
566.944	49.32
567.148	37.03
567.352	-59.22
567.556	-124.76
567.76	30.89
567.964	47.27
568.168	-40.79
568.372	-59.22
568.576	118.95
568.78	22.7
568.984	75.95
569.188	-79.7
569.392	-67.41
569.595	-61.27
569.799	94.38
570.003	-81.75
570.207	14.51
570.411	-157.52
570.615	-38.74
570.818	-147.28
571.022	-192.34
571.226	-108.37
571.43	53.42
571.633	121
571.837	-20.31
572.041	-96.08
572.244	-108.37
572.448	-167.76
572.652	20.65
572.855	164.01
573.059	10.41
573.263	-91.99
573.466	108.71
573.67	110.76
573.873	43.18
574.077	-122.71
574.28	-122.71
574.484	86.19
574.687	-96.08
574.891	-79.7
575.094	-73.56
575.298	32.94
575.501	139.43
575.705	143.53
575.908	110.76
576.112	-229.2
576.315	86.19
576.518	-106.32
576.722	2.22
576.925	-218.96
577.129	135.34
577.332	166.06
577.535	-26.45
577.739	-5.97
577.942	-186.19
578.145	-91.99
578.348	6.31
578.552	80.04
578.755	133.29
578.958	612.51
579.161	-40.79
579.365	-46.93
579.568	-57.17
579.771	-132.95
579.974	268.45
580.177	43.18
580.38	-16.21
580.583	51.37
580.787	-12.12
580.99	-96.08
581.193	116.9
581.396	24.75
581.599	14.51
581.802	94.38
582.005	-63.32
582.208	268.45
582.411	-40.79
582.614	168.1
582.817	127.14
583.02	110.76
583.223	235.69
583.426	63.66
583.629	-192.34
583.831	92.33
584.034	-51.03
584.237	30.89
584.44	278.69
584.643	-44.88
584.846	59.56
585.049	374.95
585.251	90.28
585.454	204.97
585.657	-26.45
585.86	186.54
586.062	108.71
586.265	196.78
586.468	94.38
586.671	43.18
586.873	139.43
587.076	229.54
587.279	96.43
587.481	258.21
587.684	338.09
587.886	53.42
588.089	67.75
588.292	34.99
588.494	108.71
588.697	88.23
588.899	303.27
589.102	174.25
589.304	133.29
589.507	-34.64
589.709	41.13
589.912	-18.26
590.114	86.19
590.317	80.04
590.519	43.18
590.722	-14.17
590.924	-18.26
591.126	-98.13
591.329	164.01
591.531	174.25
591.734	-26.45
591.936	125.1
592.138	223.4
592.341	-89.94
592.543	-87.89
592.745	67.75
592.947	20.65
593.15	59.56
593.352	94.38
593.554	-20.31
593.756	-40.79
593.959	-12.12
594.161	108.71
594.363	215.21
594.565	63.66
594.767	75.95
594.969	333.99
595.171	30.89
595.374	137.38
595.576	106.67
595.778	67.75
595.98	-202.58
596.182	217.26
596.384	-38.74
596.586	112.81
596.788	-24.4
596.99	84.14
597.192	-18.26
597.394	8.36
597.596	-46.93
597.798	100.52
598	155.82
598.202	260.26
598.403	73.9
598.605	194.73
598.807	-67.41
599.009	118.95
599.211	-46.93
599.413	-36.69
599.615	75.95
599.816	211.11
600.018	75.95
600.22	116.9
600.422	-10.07
600.623	-12.12
600.825	-71.51
601.027	123.05
601.228	266.41
601.43	272.55
601.632	92.33
601.833	-106.32
602.035	254.12
602.237	65.71
602.438	145.58
602.64	118.95
602.842	106.67
603.043	20.65
603.245	96.43
603.446	129.19
603.648	-65.36
603.849	28.84
604.051	-112.47
604.252	665.76
604.454	6.31
604.655	211.11
604.857	131.24
605.058	147.62
605.259	135.34
605.461	51.37
605.662	77.99
605.864	299.17
606.065	41.13
606.266	311.46
606.468	284.84
606.669	194.73
606.87	366.76
607.072	34.99
